; File: 8CFIELD.TBL
; Created by program SegField from data in file:
;8C82BE1.SFO  02-05-2020  17:42:24

Center
Title
Fields and power on segments   6 through  30

Abscissa  3
Xscale       0.00000    116.03042
Ordinate 4 5 7
Titles
Z
R
S
Electric field
Magnetic field
Power density
Radiation pressure
EndTitles

AxisLabels
Z (cm)
R (cm)
S (cm)
E (MV/m)
H (kA/m)
Power density (W/cm^2)
Radiation pressure (kPa)
EndLabels

CurveLabels
Z
R
S
E
H
P.D.
P (kPa)
EndLabels

Data
;  Z       R         S         E         H          P.D.        P (kPa)
 0.00000   8.00000    0.0000  22.45156    0.00000  0.00000000  -1.115788
 0.10113   8.00499    0.1013  22.52382   -0.88585  0.00000058  -1.122736
 0.20226   8.00998    0.2025  22.65506   -1.77511  0.00000234  -1.135117
 0.30148   8.02461    0.3028  22.60024   -2.62550  0.00000513  -1.128450
 0.40069   8.03923    0.4031  22.68247   -3.55944  0.00000942  -1.134877
 0.49646   8.06259    0.5017  22.63180   -4.41738  0.00001451  -1.127645
 0.59223   8.08595    0.6002  22.61270   -5.27134  0.00002066  -1.123133
 0.68357   8.11683    0.6967  22.67666   -6.09955  0.00002766  -1.126586
 0.77491   8.14771    0.7931  22.81952   -6.93889  0.00003580  -1.137536
 0.86138   8.18487    0.8872  22.81454   -7.74143  0.00004456  -1.133331
 0.94786   8.22202    0.9813  22.83115   -8.54123  0.00005424  -1.130918
 1.02940   8.26431    1.0732  22.90508   -9.31287  0.00006448  -1.134074
 1.11094   8.30660    1.1650  22.94079  -10.09199  0.00007572  -1.132949
 1.18773   8.35306    1.2548  22.97153  -10.83539  0.00008729  -1.131185
 1.26451   8.39952    1.3445  23.01306  -11.57713  0.00009965  -1.130189
 1.33683   8.44939    1.4324  23.09113  -12.29478  0.00011239  -1.132776
 1.40915   8.49926    1.5202  23.07452  -13.01742  0.00012599  -1.125331
 1.47733   8.55191    1.6064  23.12353  -13.70932  0.00013974  -1.124533
 1.54552   8.60457    1.6925  23.16838  -14.40455  0.00015427  -1.122989
 1.60990   8.65952    1.7771  23.21324  -15.07569  0.00016898  -1.121378
 1.67428   8.71447    1.8618  23.25394  -15.74766  0.00018438  -1.119058
 1.73519   8.77135    1.9451  23.28965  -16.39803  0.00019992  -1.116169
 1.79610   8.82822    2.0285  23.32869  -17.04674  0.00021605  -1.113382
 1.85381   8.88670    2.1106  23.38351  -17.67884  0.00023237  -1.112155
 1.91152   8.94519    2.1928  23.33866  -18.31343  0.00024935  -1.100340
 1.96631   9.00504    2.2739  23.38102  -18.92725  0.00026635  -1.097540
 2.02109   9.06490    2.3551  23.38766  -19.54274  0.00028395  -1.090789
 2.07318   9.12592    2.4353  23.42006  -20.14079  0.00030160  -1.086690
 2.12528   9.18695    2.5155  23.42255  -20.73966  0.00031980  -1.079257
 2.17487   9.24899    2.5950  23.44664  -21.32275  0.00033804  -1.074050
 2.22447   9.31103    2.6744  23.44249  -21.90668  0.00035680  -1.065689
 2.27176   9.37394    2.7531  23.45744  -22.47565  0.00037558  -1.059308
 2.31906   9.43686    2.8318  23.44581  -23.04462  0.00039484  -1.049964
 2.36420   9.50055    2.9099  23.45328  -23.60113  0.00041414  -1.042585
 2.40935   9.56423    2.9879  23.43501  -24.15598  0.00043384  -1.032364
 2.45249   9.62860    3.0654  23.43501  -24.70004  0.00045360  -1.024013
 2.49563   9.69296    3.1429  23.41009  -25.24243  0.00047374  -1.012919
 2.53690   9.75793    3.2199  23.40179  -25.77319  0.00049387  -1.003552
 2.57817   9.82289    3.2968  23.36939  -26.30396  0.00051442  -0.991515
 2.61768   9.88840    3.3733  23.35361  -26.82309  0.00053493  -0.981218
 2.65719   9.95390    3.4498  23.31457  -27.34140  0.00055580  -0.968366
 2.69505  10.01990    3.5259  23.29381  -27.84974  0.00057666  -0.957409
 2.73290  10.08590    3.6020  23.22569  -28.35641  0.00059783  -0.941449
 2.76918  10.15230    3.6777  23.18998  -28.85229  0.00061893  -0.928867
 2.80547  10.21870    3.7533  23.14014  -29.34734  0.00064035  -0.914705
 2.84027  10.28550    3.8287  23.11605  -29.83408  0.00066176  -0.903189
 2.87507  10.35230    3.9040  23.07037  -30.31667  0.00068335  -0.889399
 2.90846  10.41940    3.9789  23.02718  -30.79178  0.00070493  -0.875870
 2.94185  10.48660    4.0540  22.96820  -31.26523  0.00072678  -0.860636
 2.97390  10.55410    4.1287  22.91754  -31.73038  0.00074856  -0.846284
 3.00595  10.62150    4.2033  22.83697  -32.19469  0.00077063  -0.828799
 3.03672  10.68930    4.2778  22.77550  -32.64987  0.00079258  -0.813321
 3.06749  10.75710    4.3522  22.69244  -33.10172  0.00081466  -0.795627
 3.09703  10.82510    4.4264  22.62599  -33.54610  0.00083668  -0.779657
 3.12657  10.89310    4.5005  22.51801  -33.98799  0.00085887  -0.759491
 3.15494  10.96140    4.5745  22.43827  -34.42157  0.00088093  -0.742238
 3.18330  11.02970    4.6484  22.34607  -34.85266  0.00090313  -0.723716
 3.21054  11.09820    4.7222  22.27547  -35.27711  0.00092526  -0.707391
 3.23778  11.16670    4.7959  22.18742  -35.69657  0.00094739  -0.689373
 3.26393  11.23540    4.8694  22.10021  -36.11022  0.00096948  -0.671492
 3.29008  11.30410    4.9429  22.00137  -36.52137  0.00099168  -0.652461
 3.31518  11.37310    5.0163  21.90834  -36.92505  0.00101372  -0.634104
 3.34029  11.44200    5.0896  21.77045  -37.32624  0.00103587  -0.611415
 3.36438  11.51100    5.1627  21.66414  -37.71912  0.00105779  -0.591930
 3.38847  11.58010    5.2359  21.54204  -38.10868  0.00107976  -0.570973
 3.41158  11.64940    5.3090  21.44236  -38.49242  0.00110161  -0.552254
 3.43470  11.71860    5.3819  21.32691  -38.87118  0.00112340  -0.532118
 3.45686  11.78800    5.4548  21.21394  -39.24413  0.00114506  -0.512328
 3.47903  11.85740    5.5276  21.07191  -39.61209  0.00116663  -0.489918
 3.50027  11.92690    5.6003  20.94731  -39.97507  0.00118811  -0.469254
 3.52151  11.99650    5.6731  20.80196  -40.33390  0.00120953  -0.446767
 3.54186  12.06620    5.7457  20.68069  -40.68608  0.00123075  -0.426668
 3.56221  12.13580    5.8182  20.54530  -41.03411  0.00125189  -0.405378
 3.58169  12.20560    5.8907  20.41157  -41.37549  0.00127281  -0.384415
 3.60117  12.27540    5.9631  20.25043  -41.71272  0.00129364  -0.361109
 3.61980  12.34530    6.0355  20.10756  -42.04331  0.00131423  -0.339648
 3.63843  12.41520    6.1078  19.94310  -42.37057  0.00133477  -0.316389
 3.65624  12.48520    6.1800  19.80106  -42.69119  0.00135505  -0.295325
 3.67404  12.55530    6.2524  19.64657  -43.00599  0.00137510  -0.273359
 3.69104  12.62540    6.3245  19.49290  -43.31581  0.00139499  -0.251644
 3.70803  12.69550    6.3966  19.31432  -43.62065  0.00141469  -0.227978
 3.72424  12.76570    6.4687  19.15235  -43.91884  0.00143410  -0.205986
 3.74044  12.83590    6.5407  18.96879  -44.21288  0.00145337  -0.182355
 3.75587  12.90620    6.6127  18.80682  -44.50110  0.00147238  -0.160779
 3.77130  12.97650    6.6847  18.63322  -44.78268  0.00149107  -0.138494
 3.78597  13.04680    6.7565  18.46045  -45.05928  0.00150955  -0.116501
 3.80064  13.11720    6.8284  18.26359  -45.33006  0.00152774  -0.092809
 3.81457  13.18760    6.9002  18.08252  -45.59502  0.00154566  -0.070672
 3.82850  13.25810    6.9720  17.87902  -45.85501  0.00156333  -0.047004
 3.84169  13.32860    7.0437  17.69628  -46.10918  0.00158071  -0.025271
 3.85489  13.39910    7.1155  17.50275  -46.35670  0.00159773  -0.003001
 3.86736  13.46970    7.1872  17.30921  -46.59841  0.00161443   0.018971
 3.87984  13.54030    7.2589  17.09159  -46.83430  0.00163082   0.042466
 3.89161  13.61090    7.3304  16.89058  -47.06438  0.00164688   0.064374
 3.90337  13.68150    7.4020  16.65967  -47.28865  0.00166261   0.088170
 3.91444  13.75220    7.4736  16.44870  -47.50710  0.00167801   0.110137
 3.92551  13.82290    7.5451  16.23107  -47.71808  0.00169295   0.132191
 3.93590  13.89370    7.6167  16.01345  -47.92324  0.00170754   0.153888
 3.94628  13.96440    7.6881  15.77008  -48.12176  0.00172171   0.177001
 3.95598  14.03520    7.7596  15.53086  -48.31446  0.00173553   0.199413
 3.96569  14.10600    7.8311  15.29165  -48.49969  0.00174886   0.221368
 3.97472  14.17680    7.9024  15.05243  -48.67827  0.00176177   0.242888
 3.98375  14.24760    7.9738  14.77833  -48.84938  0.00177417   0.266230
 3.99220  14.31640    8.0431  14.54492  -49.00886  0.00178578   0.286283
 4.00064  14.38520    8.1124  14.27580  -49.16252  0.00179699   0.308191
 4.00909  14.45400    8.1818  14.02579  -49.30954  0.00180776   0.328402
 4.01753  14.52280    8.2511  13.80069  -49.45074  0.00181812   0.346647
 4.02598  14.59160    8.3204  13.57393  -49.58614  0.00182809   0.364600
 4.03442  14.66030    8.3896  13.33804  -49.71571  0.00183766   0.382695
 4.04287  14.72910    8.4589  13.11128  -49.83947  0.00184682   0.399842
 4.05132  14.79790    8.5282  12.89117  -49.95825  0.00185563   0.416235
 4.05976  14.86670    8.5976  12.66939  -50.07122  0.00186403   0.432333
 4.06821  14.93550    8.6669  12.44014  -50.17753  0.00187196   0.448423
 4.07665  15.00430    8.7362  12.21920  -50.27970  0.00187959   0.463708
 4.08510  15.07300    8.8054  11.98496  -50.37605  0.00188680   0.479304
 4.09354  15.14180    8.8747  11.75571  -50.46742  0.00189365   0.494246
 4.10199  15.21060    8.9440  11.52896  -50.55297  0.00190008   0.508649
 4.11043  15.27940    9.0134  11.30220  -50.63271  0.00190608   0.522643
 4.11888  15.34820    9.0827  11.05218  -50.70664  0.00191165   0.537368
 4.12732  15.41700    9.1520  10.79469  -50.77475  0.00191678   0.551992
 4.13577  15.48570    9.2212  10.55381  -50.83704  0.00192149   0.565363
 4.14422  15.55450    9.2905  10.31210  -50.89269  0.00192570   0.578306
 4.15266  15.62330    9.3598  10.04298  -50.94170  0.00192941   0.592000
 4.16186  15.69210    9.4293   9.77802  -50.98572  0.00193275   0.605035
 4.17106  15.76090    9.4987   9.55043  -51.02393  0.00193564   0.615996
 4.18177  15.82950    9.5681   9.32450  -51.05716  0.00193817   0.626501
 4.19248  15.89820    9.6376   9.09691  -51.08457  0.00194025   0.636661
 4.20471  15.96670    9.7072   8.89341  -51.10866  0.00194208   0.645538
 4.21694  16.03530    9.7769   8.70071  -51.12610  0.00194340   0.653603
 4.23070  16.10370    9.8467   8.50219  -51.14188  0.00194460   0.661670
 4.24447  16.17210    9.9164   8.32527  -51.15351  0.00194549   0.668634
 4.25977  16.24030    9.9863   8.15051  -51.16265  0.00194618   0.675301
 4.27508  16.30860   10.0563   7.98455  -51.16680  0.00194650   0.681362
 4.29195  16.37660   10.1264   7.81975  -51.17012  0.00194675   0.687234
 4.30882  16.44470   10.1965   7.67091  -51.16846  0.00194663   0.692284
 4.32727  16.51250   10.2668   7.51043  -51.16514  0.00194637   0.697570
 4.34572  16.58040   10.3372   7.36009  -51.15849  0.00194587   0.702305
 4.36577  16.64800   10.4077   7.21199  -51.15102  0.00194530   0.706842
 4.38582  16.71570   10.4783   7.07345  -51.13939  0.00194441   0.710849
 4.40749  16.78300   10.5490   6.93207  -51.12693  0.00194347   0.714832
 4.42916  16.85040   10.6198   6.80067  -51.11115  0.00194227   0.718319
 4.45247  16.91750   10.6908   6.66063  -51.09370  0.00194094   0.721932
 4.47579  16.98470   10.7620   6.53022  -51.07377  0.00193943   0.725100
 4.50077  17.05150   10.8333   6.39558  -51.05217  0.00193779   0.728259
 4.52576  17.11830   10.9046   6.26667  -51.02892  0.00193602   0.731127
 4.55244  17.18480   10.9762   6.13992  -51.00400  0.00193413   0.733809
 4.57913  17.25130   11.0479   6.01798  -50.97659  0.00193205   0.736212
 4.60754  17.31740   11.1198   5.89638  -50.94835  0.00192991   0.738515
 4.63595  17.38360   11.1919   5.78317  -50.91844  0.00192765   0.740485
 4.66612  17.44930   11.2642   5.66239  -50.88771  0.00192532   0.742562
 4.69630  17.51510   11.3366   5.54852  -50.85366  0.00192275   0.744299
 4.72827  17.58040   11.4093   5.43074  -50.82043  0.00192024   0.746100
 4.76023  17.64580   11.4821   5.31985  -50.78388  0.00191747   0.747573
 4.79404  17.71070   11.5552   5.20497  -50.74734  0.00191472   0.749083
 4.82784  17.77560   11.6284   5.09733  -50.70830  0.00191177   0.750294
 4.86351  17.83990   11.7020   4.98478  -50.67009  0.00190889   0.751588
 4.89919  17.90430   11.7756   4.87215  -50.62856  0.00190576   0.752724
 4.93678  17.96820   11.8497   4.76242  -50.58703  0.00190264   0.753744
 4.97437  18.03200   11.9238   4.65693  -50.54301  0.00189933   0.754545
 5.01392  18.09530   11.9984   4.54987  -50.49981  0.00189608   0.755355
 5.05347  18.15860   12.0730   4.45028  -50.45413  0.00189265   0.755891
 5.09504  18.22120   12.1482   4.35251  -50.40928  0.00188929   0.756374
 5.13660  18.28380   12.2233   4.25533  -50.36276  0.00188581   0.756753
 5.18023  18.34580   12.2991   4.16006  -50.31625  0.00188232   0.757057
 5.22385  18.40770   12.3749   4.06105  -50.26890  0.00187878   0.757363
 5.26959  18.46890   12.4513   3.95947  -50.22156  0.00187525   0.757671
 5.31533  18.53010   12.5277   3.85323  -50.17172  0.00187153   0.757937
 5.36325  18.59050   12.6048   3.75497  -50.12271  0.00186787   0.758048
 5.41116  18.65080   12.6818   3.66161  -50.07205  0.00186410   0.757985
 5.46131  18.71030   12.7596   3.56550  -50.02221  0.00186039   0.757956
 5.51146  18.76980   12.8374   3.47247  -49.96988  0.00185650   0.757761
 5.56390  18.82820   12.9159   3.37837  -49.91921  0.00185273   0.757598
 5.61635  18.88670   12.9945   3.28675  -49.86605  0.00184879   0.757283
 5.67115  18.94410   13.0738   3.19746  -49.81539  0.00184504   0.756978
 5.72595  19.00150   13.1532   3.10916  -49.76223  0.00184110   0.756548
 5.78318  19.05780   13.2335   3.01929  -49.71073  0.00183729   0.756158
 5.84041  19.11400   13.3137   2.92992  -49.65757  0.00183336   0.755675
 5.90014  19.16890   13.3948   2.84195  -49.60607  0.00182956   0.755193
 5.95986  19.22390   13.4760   2.75482  -49.55291  0.00182564   0.754617
 6.02214  19.27740   13.5581   2.66719  -49.50141  0.00182185   0.754066
 6.08442  19.33100   13.6403   2.57366  -49.44825  0.00181794   0.753498
 6.14932  19.38290   13.7234   2.48795  -49.39759  0.00181422   0.752885
 6.21423  19.43490   13.8065   2.40272  -49.34443  0.00181031   0.752159
 6.28182  19.48520   13.8908   2.31875  -49.29459  0.00180666   0.751492
 6.34940  19.53550   13.9750   2.23652  -49.24226  0.00180283   0.750701
 6.41973  19.58380   14.0604   2.15179  -49.19325  0.00179924   0.750009
 6.49005  19.63220   14.1457   2.06018  -49.14259  0.00179553   0.749298
 6.56315  19.67860   14.2323   1.97786  -49.09524  0.00179208   0.748572
 6.63626  19.72490   14.3189   1.89596  -49.04457  0.00178838   0.747712
 6.71217  19.76890   14.4066   1.81515  -48.99889  0.00178505   0.746969
 6.78808  19.81300   14.4944   1.74047  -48.95071  0.00178154   0.746074
 6.86681  19.85450   14.5834   1.66032  -48.90669  0.00177834   0.745324
 6.94554  19.89600   14.6724   1.58025  -48.86101  0.00177502   0.744496
 7.02707  19.93480   14.7627   1.50092  -48.82031  0.00177206   0.743788
 7.10860  19.97360   14.8530   1.42168  -48.77628  0.00176887   0.742950
 7.19289  20.00940   14.9445   1.33214  -48.73808  0.00176610   0.742326
 7.27717  20.04520   15.0361   1.25290  -48.69738  0.00176315   0.741533
 7.36412  20.07770   15.1289   1.17457  -48.66249  0.00176062   0.740887
 7.45106  20.11020   15.2217   1.09650  -48.62428  0.00175786   0.740112
 7.54054  20.13920   15.3158   1.01875  -48.59355  0.00175564   0.739537
 7.63001  20.16810   15.4098   0.94125  -48.55949  0.00175318   0.738834
 7.72181  20.19320   15.5050   0.85437  -48.53208  0.00175120   0.738343
 7.81362  20.21830   15.6002   0.77487  -48.50218  0.00174904   0.737719
 7.90750  20.23930   15.6964   0.69754  -48.47975  0.00174742   0.737287
 8.00138  20.26020   15.7926   0.62037  -48.45401  0.00174557   0.736728
 8.09702  20.27690   15.8896   0.54349  -48.43656  0.00174431   0.736395
 8.19267  20.29350   15.9867   0.46676  -48.41580  0.00174282   0.735935
 8.28970  20.30550   16.0845   0.38963  -48.40334  0.00174192   0.735702
 8.38672  20.31750   16.1823   0.31420  -48.38756  0.00174078   0.735340
 8.48471  20.32480   16.2805   0.23479  -48.38174  0.00174037   0.735260
 8.58269  20.33210   16.3788   0.15671  -48.37177  0.00173965   0.735024
 8.68116  20.33450   16.4773   0.07761  -48.37011  0.00173953   0.735015
 8.77964  20.33700   16.5758   0.00329  -48.36596  0.00173923   0.734902
 8.88268  20.33430   16.6789   0.08313  -48.37094  0.00173959   0.735038
 8.98572  20.33160   16.7819   0.16485  -48.37177  0.00173965   0.735019
 9.08821  20.32370   16.8847   0.24511  -48.38257  0.00174043   0.735274
 9.19070  20.31570   16.9875   0.32413  -48.39005  0.00174096   0.735402
 9.29209  20.30250   17.0898   0.40601  -48.40666  0.00174216   0.735775
 9.39348  20.28940   17.1920   0.48641  -48.42078  0.00174318   0.736045
 9.49330  20.27120   17.2935   0.56702  -48.44321  0.00174479   0.736540
 9.59311  20.25310   17.3949   0.64781  -48.46231  0.00174617   0.736904
 9.69093  20.23020   17.4954   0.73127  -48.48972  0.00174814   0.737484
 9.78875  20.20730   17.5958   0.81361  -48.51464  0.00174994   0.737962
 9.88422  20.18000   17.6951   0.90346  -48.54703  0.00175228   0.738608
 9.97969  20.15270   17.7944   0.98478  -48.57611  0.00175438   0.739155
10.07250  20.12130   17.8924   1.06651  -48.61348  0.00175708   0.739926
10.16540  20.08980   17.9905   1.14833  -48.64671  0.00175948   0.740540
10.25540  20.05460   18.0871   1.22665  -48.68824  0.00176249   0.741398
10.34550  20.01930   18.1839   1.31171  -48.72562  0.00176519   0.742064
10.43250  19.98060   18.2791   1.39743  -48.77047  0.00176845   0.742924
10.51960  19.94190   18.3744   1.48340  -48.81117  0.00177140   0.743623
10.60360  19.90000   18.4683   1.56347  -48.85852  0.00177484   0.744536
10.68770  19.85810   18.5623   1.64994  -48.90254  0.00177804   0.745273
10.76860  19.81330   18.6547   1.73732  -48.95238  0.00178166   0.746150
10.84960  19.76850   18.7473   1.82511  -48.99889  0.00178505   0.746889
10.92740  19.72110   18.8384   1.90651  -49.05039  0.00178880   0.747803
11.00530  19.67370   18.9296   1.99473  -49.09939  0.00179238   0.748552
11.08010  19.62390   19.0195   2.08393  -49.15172  0.00179620   0.749362
11.15490  19.57420   19.1093   2.17356  -49.20239  0.00179991   0.750083
11.22670  19.52230   19.1979   2.25554  -49.25638  0.00180386   0.750949
11.29850  19.47040   19.2865   2.34358  -49.30871  0.00180769   0.751673
11.36730  19.41660   19.3738   2.43288  -49.36353  0.00181172   0.752428
11.43620  19.36270   19.4613   2.52275  -49.41669  0.00181562   0.753092
11.50210  19.30710   19.5475   2.60897  -49.47234  0.00181971   0.753842
11.56800  19.25160   19.6336   2.69792  -49.52633  0.00182369   0.754476
11.63120  19.19440   19.7189   2.79909  -49.58198  0.00182779   0.754978
11.69430  19.13720   19.8041   2.89478  -49.63597  0.00183177   0.755455
11.75460  19.07860   19.8881   2.98847  -49.69162  0.00183588   0.755971
11.81500  19.02000   19.9723   3.08159  -49.74478  0.00183981   0.756381
11.87270  18.96010   20.0555   3.17619  -49.80043  0.00184393   0.756810
11.93040  18.90020   20.1386   3.27130  -49.85442  0.00184793   0.757143
11.98550  18.83910   20.2209   3.36483  -49.90925  0.00185199   0.757488
12.04060  18.77800   20.3032   3.45977  -49.96240  0.00185594   0.757721
12.09320  18.71580   20.3846   3.55753  -50.01723  0.00186002   0.757925
12.14580  18.65360   20.4661   3.65779  -50.06872  0.00186385   0.757943
12.19600  18.59040   20.5468   3.75738  -50.12271  0.00186787   0.758007
12.24610  18.52730   20.6274   3.86004  -50.17338  0.00187165   0.757873
12.29390  18.46320   20.7073   3.96096  -50.22571  0.00187556   0.757776
12.34160  18.39910   20.7872   4.06587  -50.27555  0.00187928   0.757486
12.38710  18.33420   20.8665   4.16853  -50.32621  0.00188307   0.757216
12.43250  18.26940   20.9456   4.27568  -50.37439  0.00188668   0.756737
12.47570  18.20370   21.0243   4.38034  -50.42340  0.00189035   0.756284
12.51890  18.13810   21.1028   4.48990  -50.46991  0.00189384   0.755607
12.56000  18.07170   21.1809   4.59671  -50.51726  0.00189739   0.754961
12.60100  18.00540   21.2589   4.70885  -50.56211  0.00190076   0.754075
12.63980  17.93840   21.3363   4.81807  -50.60696  0.00190414   0.753197
